2016/05/31	16:01
Amplitude: 0.10 V
Freq  (Hz) 	 Gain (dB)  	 Phase (deg)
 10.058            -50.318             87.822
 11.176            -49.409             87.555
 12.666            -48.339             87.279
 14.156            -47.392             87.184
 15.832            -46.421             86.597
 17.695            -45.462             86.781
 19.930            -44.448             86.778
 22.352            -43.456             86.397
 25.146            -42.443             86.123
 28.126            -41.479             85.816
 31.665            -40.459             85.578
 35.390            -39.504             85.102
 39.861            -38.483             84.614
 44.703            -37.508             84.028
 50.105            -36.526             83.444
 56.252            -35.537             82.846
 63.144            -34.547             82.110
 70.781            -33.573             81.349
 79.349            -32.603             80.319
 89.034            -31.626             79.418
100.024            -30.643             78.112
112.131            -29.691             76.855
125.915            -28.726             75.433
141.189            -27.783             73.912
158.511            -26.828             71.901
177.883            -25.903             70.043
199.489            -25.005             68.012
223.890            -24.116             65.734
251.271            -23.256             63.194
281.818            -22.427             60.556
316.277            -21.624             57.543
354.834            -20.867             54.322
398.047            -20.147             50.914
446.662            -19.483             47.269
501.238            -18.870             43.439
562.333            -18.314             39.382
630.878            -17.818             35.251
707.991            -17.378             30.986
794.418            -17.003             26.664
891.276            -16.693             22.263
1000.054            -16.433             17.864
1122.057            -16.238             13.512
1258.962            -16.091              9.062
1412.630            -16.000              4.640
1584.925            -15.953              0.184
1778.267            -15.957             -4.240
1995.265            -16.016             -8.725
2238.713            -16.121            -13.248
2511.963            -16.284            -17.792
2818.368            -16.498            -22.316
3162.213            -16.770            -26.949
3548.153            -17.098            -31.604
3981.031            -17.492            -36.202
4466.809            -17.947            -40.819
5011.819            -18.467            -45.425
5623.326            -19.040            -49.845
6309.524            -19.680            -54.297
7079.542            -20.372            -58.489
7943.250            -21.117            -62.638
8912.571            -21.908            -66.633
9999.983            -22.751            -70.485
11220.202            -23.622            -74.282
12589.246            -24.535            -77.929
14125.369            -25.488            -81.487
15848.875            -26.468            -84.966
17782.860            -27.492            -88.426
19952.655            -28.545            -91.959
22387.132            -29.643            -95.400
25118.887            -30.796            -99.050
28183.870            -32.006            -102.747
31622.685            -33.273            -106.593
35481.341            -34.627            -110.524
39810.687            -36.068            -114.541
44668.280            -37.631            -118.903
50118.752            -39.327            -123.476
56234.188            -41.193            -128.039
63095.801            -43.271            -133.144
70794.486            -45.610            -138.500
79432.875            -48.306            -144.615
89125.149            -51.510            207.502
100000.016            -55.814            177.770
112201.832            -60.194            171.020
125892.460            -58.064             90.861
141253.695            -60.021             81.936
158489.309            -57.095             65.608
177827.850            -54.964             57.821
199526.176            -53.441             53.545
