2016/05/31	16:17
Amplitude: 1.00 V
Freq  (Hz) 	 Gain (dB)  	 Phase (deg)
 10.058            -36.272             23.484
 11.176            -35.247             23.048
 12.666            -34.041             22.550
 14.156            -32.985             22.116
 15.832            -32.021             21.955
 17.695            -31.085             21.821
 19.930            -30.067             21.606
 22.352            -29.097             21.406
 25.146            -28.104             21.182
 28.126            -27.174             20.990
 31.665            -26.182             20.716
 35.390            -25.247             20.409
 39.861            -24.256             20.060
 44.703            -23.316             19.706
 50.105            -22.386             19.327
 56.252            -21.429             18.827
 63.144            -20.508             18.361
 70.781            -19.650             18.033
 79.349            -19.023             17.363
 89.034            -18.674             16.889
100.024            -18.404             16.149
112.131            -18.210             15.358
125.915            -18.066             14.605
141.189            -17.961             13.914
158.511            -13.672             13.304
177.883            -13.489             14.389
199.489            -13.276             15.431
223.890            -13.029             16.428
251.271            -12.750             17.301
281.818            -12.442             18.015
316.277            -12.103             18.526
354.834            -11.742             18.794
398.047            -11.363             18.762
446.662            -10.974             18.414
501.238            -10.583             17.722
562.333            -10.201             16.680
630.878             -9.836             15.298
707.991             -9.494             13.596
794.418             -9.185             11.591
891.276             -8.912              9.331
1000.054             -8.680              6.831
1122.057             -8.490              4.141
1258.962             -8.344              1.269
1412.630             -8.243             -1.761
1584.925             -8.186             -4.914
1778.267             -8.175             -8.199
1995.265             -8.210            -11.596
2238.713             -8.293            -15.100
2511.963             -8.425            -18.710
2818.368             -8.609            -22.407
3162.213             -8.848            -26.178
3548.153             -9.144            -29.999
3981.031             -9.499            -33.851
4466.809             -9.914            -37.699
5011.819            -10.391            -41.511
5623.326            -10.928            -45.241
6309.524            -11.524            -48.863
7079.542            -12.174            -52.338
7943.250            -12.874            -55.630
8912.571            -13.619            -58.731
9999.983            -14.405            -61.632
11220.202            -15.226            -64.309
12589.246            -16.078            -66.770
14125.369            -16.956            -69.024
15848.875            -17.855            -71.063
17782.860            -18.773            -72.921
19952.655            -19.707            -74.820
22387.132            -20.651            -76.372
25118.887            -21.604            -77.750
28183.870            -22.566            -78.986
31622.685            -23.534            -80.108
35481.341            -24.507            -81.101
39810.687            -25.484            -81.994
44668.280            -26.464            -82.782
50118.752            -27.446            -83.483
56234.188            -28.429            -84.110
63095.801            -29.414            -84.657
70794.486            -30.400            -85.155
79432.875            -31.384            -85.582
89125.149            -32.369            -85.953
100000.016            -33.353            -86.263
112201.832            -34.334            -86.556
125892.460            -35.313            -86.779
141253.695            -36.287            -86.966
158489.309            -37.254            -87.072
177827.850            -38.211            -87.147
199526.176            -39.151            -87.128
